* Measurement data measured by REW V5.30
* Source: EXCL: FiiO JA11 (2- JadeAudio JA11), MICROPHONE (Master Volume), 0, volume: 1.000
* Format: 256k Log Swept Sine, 1 sweep at -16.0 dBFS with no timing reference
* Dated: Dec 14, 2024 4:18:40 PM
* REW Settings:
*  C-weighting compensation: Off
*  Target level: 75.0 dB
* Note: ; 
* Measurement: Aeolus (Auteur Hy Perf) R6
* Smoothing: 1/24 octave
* Frequency Step: 1/48 octave
* Start Frequency: 20.300 Hz
*
* Freq(Hz) SPL(dB) Phase(degrees)
20.299999 84.710 -96.7030
20.600000 84.788 -97.5238
20.900000 84.872 -98.4187
21.200001 84.954 -99.3105
21.400000 85.010 -99.8959
21.799999 85.124 -101.0349
22.000000 85.182 -101.5845
22.400000 85.298 -102.6331
22.700001 85.384 -103.3693
23.000000 85.469 -104.0621
23.299999 85.552 -104.7178
23.600000 85.633 -105.3471
24.000000 85.739 -106.1657
24.299999 85.816 -106.7755
24.700001 85.913 -107.5894
25.000000 85.981 -108.1986
25.400000 86.064 -109.0023
25.799999 86.138 -109.7889
26.200001 86.207 -110.5538
26.500000 86.258 -111.1142
26.900000 86.331 -111.8520
27.200001 86.392 -112.4077
27.600000 86.481 -113.1642
28.000000 86.575 -113.9364
28.500000 86.684 -114.8745
29.000000 86.772 -115.6861
29.500000 86.841 -116.3171
30.000000 86.908 -116.8544
30.400000 86.969 -117.3463
30.700001 87.017 -117.8102
31.100000 87.081 -118.5712
31.500000 87.136 -119.4426
32.000000 87.191 -120.5203
32.500000 87.237 -121.4072
33.000000 87.288 -122.0483
33.500000 87.347 -122.5502
34.000000 87.407 -123.0801
34.500000 87.459 -123.7426
35.000000 87.500 -124.5223
35.500000 87.540 -125.3257
36.000000 87.596 -126.0674
36.500000 87.674 -126.7247
37.000000 87.767 -127.3214
37.500000 87.858 -127.8822
38.200001 87.959 -128.6250
38.700001 88.007 -129.1342
39.500000 88.043 -129.9004
40.000000 88.048 -130.3274
40.599998 88.059 -130.8414
41.200001 88.090 -131.5233
41.799999 88.135 -132.4840
42.500000 88.190 -133.7916
43.099998 88.231 -134.7589
43.700001 88.265 -135.3734
44.400002 88.295 -135.6707
45.000000 88.317 -135.8675
45.500000 88.332 -136.2494
46.200001 88.331 -137.2448
46.799999 88.312 -138.2548
47.500000 88.310 -139.1377
48.200001 88.356 -139.6069
48.700001 88.402 -139.8224
49.400002 88.458 -140.1391
50.000000 88.489 -140.5384
50.799999 88.493 -141.2636
51.500000 88.449 -141.7491
52.200001 88.395 -141.8042
53.000000 88.377 -141.6908
53.799999 88.382 -141.8739
54.500000 88.391 -142.1260
55.200001 88.435 -142.2684
56.000000 88.521 -142.4537
57.000000 88.597 -142.9180
58.000000 88.633 -143.4183
59.000000 88.709 -143.9442
60.000000 88.788 -144.7156
60.799999 88.797 -145.2284
61.500000 88.795 -145.4345
62.200001 88.807 -145.5966
63.000000 88.823 -145.8891
64.000000 88.843 -146.2289
65.000000 88.916 -146.6063
66.000000 89.001 -147.2672
67.000000 89.041 -147.8632
68.000000 89.083 -148.2647
69.000000 89.135 -148.7666
70.000000 89.160 -149.2007
71.000000 89.176 -149.6012
72.000000 89.149 -150.1700
73.000000 89.094 -150.5208
74.000000 89.103 -150.7281
75.000000 89.148 -151.2412
76.199997 89.156 -151.7589
77.500000 89.158 -151.9094
78.800003 89.171 -152.1932
80.000000 89.199 -152.4767
81.199997 89.230 -152.7227
82.500000 89.249 -152.9446
83.800003 89.284 -153.2064
85.000000 89.310 -153.4104
86.199997 89.329 -153.5745
87.500000 89.378 -153.8685
88.500000 89.447 -154.1115
90.000000 89.535 -154.5209
91.199997 89.551 -154.9700
92.500000 89.575 -155.4452
93.800003 89.615 -155.7448
95.000000 89.641 -156.0571
96.199997 89.652 -156.5448
97.500000 89.685 -156.9458
98.800003 89.741 -157.3230
100.000000 89.778 -157.7604
101.500000 89.813 -158.3195
103.000000 89.828 -158.8094
104.400002 89.805 -159.3293
106.000000 89.770 -159.9892
107.500000 89.785 -160.4938
109.000000 89.806 -160.8338
110.599998 89.800 -161.1842
112.000000 89.797 -161.6144
113.800003 89.785 -162.0968
115.000000 89.777 -162.3816
117.199997 89.771 -162.8872
118.000000 89.766 -163.0706
120.599998 89.753 -163.6406
122.000000 89.744 -163.9061
124.099998 89.724 -164.3530
125.000000 89.714 -164.5618
126.500000 89.688 -164.8300
128.000000 89.655 -164.9932
131.500000 89.554 -165.3343
132.000000 89.540 -165.3561
134.000000 89.497 -165.4236
136.000000 89.484 -165.4714
138.000000 89.487 -165.4325
140.000000 89.483 -165.4010
143.000000 89.467 -165.3022
145.000000 89.468 -165.2369
147.500000 89.475 -165.0351
150.000000 89.493 -164.8610
152.500000 89.543 -164.8911
155.000000 89.590 -164.7532
157.500000 89.638 -164.7066
160.000000 89.700 -164.8146
162.500000 89.755 -165.0249
165.000000 89.805 -165.2417
167.500000 89.860 -165.4435
170.000000 89.909 -165.6107
172.500000 89.952 -165.7278
175.000000 90.003 -165.9569
177.500000 90.051 -166.3228
180.000000 90.095 -166.6012
182.500000 90.129 -166.8998
185.000000 90.152 -167.3454
187.500000 90.182 -167.8817
190.000000 90.203 -168.3119
192.500000 90.207 -168.5981
195.000000 90.198 -168.9457
197.500000 90.186 -169.3732
200.000000 90.194 -169.6104
203.000000 90.232 -169.6739
206.000000 90.261 -169.9101
209.000000 90.280 -170.2306
212.000000 90.293 -170.6331
214.000000 90.306 -170.8652
218.000000 90.315 -171.2747
220.000000 90.306 -171.4150
224.000000 90.289 -171.6971
227.000000 90.292 -171.9993
230.000000 90.309 -172.2586
233.000000 90.332 -172.5055
236.000000 90.378 -172.7917
240.000000 90.469 -173.2658
243.000000 90.483 -173.1979
247.000000 90.493 -173.4828
250.000000 90.498 -174.0450
254.000000 90.487 -174.7219
258.000000 90.496 -175.3886
262.000000 90.489 -175.8993
265.000000 90.465 -176.2562
269.000000 90.451 -176.7551
272.000000 90.438 -177.1747
276.000000 90.406 -177.6524
280.000000 90.357 -178.0401
285.000000 90.303 -178.5168
290.000000 90.263 -178.8114
295.000000 90.215 -179.0889
300.000000 90.168 -179.3221
304.000000 90.138 -179.6048
307.000000 90.118 -179.7585
311.000000 90.094 -179.8324
315.000000 90.081 179.9803
320.000000 90.074 179.7032
325.000000 90.068 179.5311
330.000000 90.058 179.4001
335.000000 90.043 179.1820
340.000000 90.025 178.8625
345.000000 90.001 178.6544
350.000000 90.004 178.5013
355.000000 90.023 178.1032
360.000000 90.034 177.5861
365.000000 90.011 177.1936
370.000000 89.979 176.6874
375.000000 89.948 176.1823
382.000000 89.889 175.5660
387.000000 89.807 175.0789
395.000000 89.693 174.5663
400.000000 89.660 174.2184
406.000000 89.615 173.5125
412.000000 89.501 172.8250
418.000000 89.408 172.6320
425.000000 89.288 172.3741
431.000000 89.156 172.1475
437.000000 89.026 172.1316
444.000000 88.871 172.2054
450.000000 88.738 172.2677
455.000000 88.635 172.3904
462.000000 88.499 172.7692
468.000000 88.401 173.1811
475.000000 88.327 173.7183
482.000000 88.263 174.1900
487.000000 88.220 174.4652
494.000000 88.162 174.8224
500.000000 88.092 175.0812
508.000000 87.982 175.3374
515.000000 87.896 175.8004
522.000000 87.830 176.4577
530.000000 87.773 177.2489
538.000000 87.732 178.0028
545.000000 87.715 178.5403
552.000000 87.705 178.9580
560.000000 87.693 179.4408
570.000000 87.672 -179.9110
580.000000 87.640 -179.3459
590.000000 87.592 -178.5792
600.000000 87.566 -177.5629
608.000000 87.585 -176.7997
615.000000 87.624 -176.1594
622.000000 87.675 -175.5772
630.000000 87.738 -174.9706
640.000000 87.834 -174.3185
650.000000 87.934 -173.7589
660.000000 88.044 -173.3164
670.000000 88.166 -173.1198
680.000000 88.277 -173.1379
690.000000 88.368 -173.2097
700.000000 88.445 -173.2889
710.000000 88.511 -173.4725
720.000000 88.581 -173.7720
730.000000 88.652 -174.1542
740.000000 88.700 -174.5499
750.000000 88.721 -174.9740
762.000000 88.717 -175.4245
775.000000 88.715 -175.7868
788.000000 88.734 -176.0116
800.000000 88.771 -176.3641
812.000000 88.801 -177.1178
825.000000 88.769 -178.1597
838.000000 88.668 -179.0817
850.000000 88.519 -179.7719
862.000000 88.337 -179.9807
875.000000 88.156 -179.6297
885.000000 88.056 -179.1935
900.000000 87.948 -178.6180
912.000000 87.876 -178.1467
925.000000 87.810 -177.5804
938.000000 87.771 -177.1287
950.000000 87.733 -176.8523
962.000000 87.683 -176.5263
975.000000 87.617 -176.1665
988.000000 87.525 -175.6514
1000.000000 87.471 -174.7168
1015.000000 87.486 -173.5301
1030.000000 87.558 -172.7705
1044.000000 87.600 -172.5936
1060.000000 87.603 -172.2628
1075.000000 87.581 -172.0755
1090.000000 87.524 -171.7029
1106.000000 87.510 -170.9462
1120.000000 87.535 -170.2756
1138.000000 87.589 -169.6435
1150.000000 87.619 -169.4623
1172.000000 87.619 -169.2276
1180.000000 87.600 -169.1088
1206.000000 87.500 -168.1987
1220.000000 87.446 -167.2637
1241.000000 87.489 -165.0722
1250.000000 87.601 -164.0287
1265.000000 87.894 -163.2886
1280.000000 88.120 -164.1208
1315.000000 88.087 -165.6398
1320.000000 88.067 -165.5950
1340.000000 88.029 -165.0659
1360.000000 88.067 -164.4581
1380.000000 88.143 -164.1414
1400.000000 88.199 -164.0743
1430.000000 88.222 -163.8462
1450.000000 88.243 -163.5963
1475.000000 88.274 -163.2137
1500.000000 88.330 -162.8695
1525.000000 88.397 -162.7341
1550.000000 88.438 -162.8412
1575.000000 88.428 -162.9652
1600.000000 88.393 -163.0076
1625.000000 88.319 -162.9179
1650.000000 88.226 -162.5386
1675.000000 88.098 -161.9359
1700.000000 87.954 -160.3704
1725.000000 87.966 -157.9979
1750.000000 88.147 -156.1075
1775.000000 88.366 -155.1191
1800.000000 88.551 -154.5939
1825.000000 88.712 -154.1510
1850.000000 88.872 -153.7911
1875.000000 89.029 -153.5711
1900.000000 89.172 -153.4771
1925.000000 89.304 -153.4350
1950.000000 89.423 -153.4746
1975.000000 89.531 -153.5592
2000.000000 89.631 -153.6667
2030.000000 89.739 -153.8715
2060.000000 89.821 -154.1477
2090.000000 89.872 -154.3595
2120.000000 89.906 -154.4346
2140.000000 89.921 -154.4000
2180.000000 89.964 -154.0262
2200.000000 90.001 -153.8009
2240.000000 90.085 -153.3737
2270.000000 90.160 -152.9938
2300.000000 90.251 -152.6237
2330.000000 90.349 -152.2898
2360.000000 90.455 -151.9219
2400.000000 90.633 -151.5017
2430.000000 90.776 -151.4176
2470.000000 90.947 -151.4677
2500.000000 91.060 -151.5220
2540.000000 91.205 -151.4958
2580.000000 91.371 -151.3958
2620.000000 91.567 -151.4175
2650.000000 91.721 -151.5942
2690.000000 91.917 -151.9834
2720.000000 92.058 -152.3365
2760.000000 92.249 -152.8892
2800.000000 92.438 -153.6490
2850.000000 92.638 -154.8654
2900.000000 92.786 -156.2028
2950.000000 92.884 -157.5192
3000.000000 92.929 -158.7036
3040.000000 92.920 -159.3839
3070.000000 92.897 -159.5278
3110.000000 92.904 -158.9216
3150.000000 93.095 -157.5845
3200.000000 93.684 -156.9303
3250.000000 94.340 -159.2401
3300.000000 94.744 -163.3291
3350.000000 94.906 -167.6911
3400.000000 94.898 -171.8455
3450.000000 94.765 -175.5524
3500.000000 94.558 -178.7291
3550.000000 94.311 178.5644
3600.000000 94.044 176.2438
3650.000000 93.766 174.1982
3700.000000 93.476 172.3508
3750.000000 93.167 170.6970
3820.000000 92.709 168.7563
3870.000000 92.367 167.6282
3950.000000 91.801 166.2780
4000.000000 91.442 165.6945
4060.000000 91.001 165.2530
4120.000000 90.553 165.1323
4180.000000 90.104 165.3700
4250.000000 89.612 166.0481
4310.000000 89.205 166.5982
4370.000000 88.744 167.2181
4440.000000 88.119 168.5166
4500.000000 87.499 170.4843
4550.000000 86.922 173.1784
4620.000000 86.119 -179.7882
4680.000000 85.913 -168.7599
4750.000000 87.245 -154.1384
4820.000000 89.576 -150.7130
4870.000000 90.808 -155.4592
4940.000000 91.471 -165.0790
5000.000000 91.340 -171.9494
5080.000000 90.742 -177.6712
5150.000000 90.091 179.9445
5220.000000 89.419 179.5683
5300.000000 88.722 -178.5029
5380.000000 88.278 -174.0824
5450.000000 88.301 -169.0848
5520.000000 88.765 -164.8904
5600.000000 89.641 -163.1373
5700.000000 90.720 -166.4397
5800.000000 91.227 -174.4722
5900.000000 90.804 176.2032
6000.000000 89.520 169.9262
6080.000000 88.165 169.0176
6150.000000 86.991 171.6171
6220.000000 86.040 176.9598
6300.000000 85.404 -175.1224
6400.000000 85.248 -165.1709
6500.000000 85.598 -156.3373
6600.000000 86.364 -148.9592
6700.000000 87.472 -144.0622
6800.000000 88.715 -142.5801
6900.000000 89.846 -144.3611
7000.000000 90.703 -148.5256
7100.000000 91.201 -154.0536
7200.000000 91.314 -159.7874
7300.000000 91.106 -164.5986
7400.000000 90.721 -167.8578
7500.000000 90.302 -169.6016
7620.000000 89.882 -170.2694
7750.000000 89.598 -170.1815
7880.000000 89.479 -170.1877
8000.000000 89.437 -170.8514
8120.000000 89.353 -172.0812
8250.000000 89.197 -173.3577
8380.000000 89.050 -174.5411
8500.000000 88.924 -176.0233
8620.000000 88.697 -177.9668
8750.000000 88.308 -179.2103
8850.000000 88.102 -179.2332
9000.000000 88.065 179.2338
9120.000000 87.900 175.6338
9250.000000 87.304 171.2549
9380.000000 86.328 168.1081
9500.000000 85.185 167.0264
9620.000000 83.886 168.1681
9750.000000 82.381 172.5634
9880.000000 80.921 -178.4291
10000.000000 79.988 -164.2823
10150.000000 80.441 -140.4364
10300.000000 82.911 -122.2972
10440.000000 85.762 -117.4726
10600.000000 88.424 -122.8666
10750.000000 89.922 -133.0042
10900.000000 90.537 -143.4761
11060.000000 90.711 -152.3793
11200.000000 90.834 -159.2836
11380.000000 90.775 -169.6540
11500.000000 90.344 -176.9742
11720.000000 88.662 172.8363
11800.000000 87.851 171.0167
12060.000000 85.156 175.3453
12200.000000 84.446 -175.0040
12410.000000 85.574 -161.2733
12500.000000 86.546 -159.5751
12650.000000 88.131 -162.3114
12800.000000 89.385 -169.5981
13150.000000 90.914 164.9523
13200.000000 90.974 160.6860
13400.000000 90.749 142.7819
13600.000000 89.698 125.2020
13800.000000 87.888 110.6636
14000.000000 85.692 101.3004
14300.000000 82.993 95.1515
14500.000000 82.114 90.6028
14750.000000 81.510 77.8167
15000.000000 80.285 56.8688
15250.000000 77.692 32.3174
15500.000000 73.567 11.7554
15750.000000 69.107 4.3311
16000.000000 67.541 3.7910
16250.000000 68.496 -2.0913
16500.000000 69.717 -10.4332
16750.000000 70.654 -17.4841
17000.000000 71.383 -23.1611
17250.000000 71.747 -29.6884
17500.000000 71.278 -37.3329
17750.000000 69.652 -43.5676
18000.000000 66.768 -43.2676
18250.000000 64.192 -4.5735
18500.000000 66.573 51.6681
18750.000000 69.754 53.4121
19000.000000 71.658 47.7763
19250.000000 73.003 42.7811
19500.000000 74.339 36.7622
19750.000000 75.446 27.8130
20000.000000 75.987 19.5472
