* Measurement data measured by REW V5.30
* Source: EXCL: FiiO JA11 (2- JadeAudio JA11), MICROPHONE (Master Volume), 0, volume: 1.000
* Format: 256k Log Swept Sine, 1 sweep at -18.0 dBFS with no timing reference
* Dated: Dec 8, 2024 2:59:38 PM
* REW Settings:
*  C-weighting compensation: Off
*  Target level: 75.0 dB
* Note: ; 
* Measurement: Aeolus (Au Hy Perf) R4
* Smoothing: 1/24 octave
* Frequency Step: 1/48 octave
* Start Frequency: 20.300 Hz
*
* Freq(Hz) SPL(dB) Phase(degrees)
20.299999 81.865 -93.8333
20.600000 81.955 -94.6063
20.900000 82.050 -95.4410
21.200001 82.140 -96.2537
21.400000 82.200 -96.7726
21.799999 82.321 -97.7559
22.000000 82.385 -98.2280
22.400000 82.520 -99.1613
22.700001 82.623 -99.8696
23.000000 82.724 -100.5890
23.299999 82.820 -101.3109
23.600000 82.910 -102.0227
24.000000 83.024 -102.9421
24.299999 83.106 -103.6113
24.700001 83.211 -104.4920
25.000000 83.285 -105.1506
25.400000 83.375 -106.0156
25.799999 83.453 -106.8343
26.200001 83.528 -107.5822
26.500000 83.588 -108.1056
26.900000 83.678 -108.7977
27.200001 83.751 -109.3444
27.600000 83.846 -110.1250
28.000000 83.929 -110.9221
28.500000 84.010 -111.8183
29.000000 84.080 -112.5249
29.500000 84.163 -113.1397
30.000000 84.263 -113.8605
30.400000 84.345 -114.5836
30.700001 84.403 -115.1940
31.100000 84.476 -116.0406
31.500000 84.546 -116.8644
32.000000 84.636 -117.8155
32.500000 84.722 -118.6737
33.000000 84.791 -119.4292
33.500000 84.838 -120.0661
34.000000 84.877 -120.6176
34.500000 84.922 -121.1735
35.000000 84.977 -121.8081
35.500000 85.041 -122.5144
36.000000 85.109 -123.2298
36.500000 85.179 -123.9087
37.000000 85.248 -124.5539
37.500000 85.309 -125.1897
38.200001 85.382 -126.0812
38.700001 85.428 -126.7124
39.500000 85.502 -127.6985
40.000000 85.544 -128.2899
40.599998 85.586 -128.9713
41.200001 85.620 -129.6570
41.799999 85.653 -130.4027
42.500000 85.695 -131.3471
43.099998 85.740 -132.1297
43.700001 85.795 -132.8216
44.400002 85.861 -133.5588
45.000000 85.902 -134.2111
45.500000 85.918 -134.7784
46.200001 85.919 -135.5460
46.799999 85.920 -136.1261
47.500000 85.935 -136.7384
48.200001 85.959 -137.4122
48.700001 85.967 -137.9797
49.400002 85.950 -138.7982
50.000000 85.926 -139.3565
50.799999 85.920 -139.8190
51.500000 85.937 -140.1214
52.200001 85.937 -140.3948
53.000000 85.916 -140.6085
53.799999 85.906 -140.8168
54.500000 85.908 -141.0446
55.200001 85.919 -141.2206
56.000000 85.956 -141.3979
57.000000 86.018 -141.7238
58.000000 86.090 -141.8786
59.000000 86.177 -141.9335
60.000000 86.219 -142.1406
60.799999 86.236 -142.3651
61.500000 86.270 -142.6516
62.200001 86.319 -143.0129
63.000000 86.378 -143.4139
64.000000 86.448 -143.8855
65.000000 86.509 -144.4041
66.000000 86.572 -144.9343
67.000000 86.636 -145.5094
68.000000 86.683 -146.1429
69.000000 86.714 -146.7747
70.000000 86.736 -147.4164
71.000000 86.740 -148.0345
72.000000 86.741 -148.5393
73.000000 86.748 -148.9786
74.000000 86.748 -149.3656
75.000000 86.743 -149.6708
76.199997 86.747 -149.9994
77.500000 86.766 -150.3579
78.800003 86.801 -150.6479
80.000000 86.835 -150.9149
81.199997 86.855 -151.2280
82.500000 86.873 -151.5944
83.800003 86.897 -151.9377
85.000000 86.920 -152.2161
86.199997 86.946 -152.4746
87.500000 86.979 -152.8179
88.500000 86.999 -153.1111
90.000000 87.039 -153.4659
91.199997 87.080 -153.6999
92.500000 87.107 -153.9847
93.800003 87.125 -154.3356
95.000000 87.161 -154.6870
96.199997 87.207 -154.9543
97.500000 87.242 -155.2755
98.800003 87.270 -155.8009
100.000000 87.298 -156.3122
101.500000 87.330 -156.4553
103.000000 87.358 -156.5554
104.400002 87.371 -156.9769
106.000000 87.385 -157.4554
107.500000 87.415 -157.7794
109.000000 87.448 -158.1245
110.599998 87.478 -158.5807
112.000000 87.495 -159.0279
113.800003 87.516 -159.6091
115.000000 87.529 -160.0061
117.199997 87.530 -160.7782
118.000000 87.523 -161.0567
120.599998 87.504 -161.8538
122.000000 87.484 -162.1862
124.099998 87.450 -162.5579
125.000000 87.437 -162.6838
126.500000 87.420 -162.8842
128.000000 87.405 -163.0899
131.500000 87.373 -163.4572
132.000000 87.369 -163.4995
134.000000 87.359 -163.6833
136.000000 87.351 -163.8492
138.000000 87.337 -163.9729
140.000000 87.318 -164.1237
143.000000 87.301 -164.3399
145.000000 87.289 -164.3768
147.500000 87.287 -164.2332
150.000000 87.321 -163.9310
152.500000 87.336 -163.8482
155.000000 87.355 -163.8904
157.500000 87.369 -163.9488
160.000000 87.390 -164.0285
162.500000 87.504 -164.2006
165.000000 87.590 -164.3989
167.500000 87.641 -164.5630
170.000000 87.685 -164.7141
172.500000 87.738 -165.0441
175.000000 87.807 -165.5779
177.500000 87.877 -166.1408
180.000000 87.915 -166.5586
182.500000 87.922 -166.8658
185.000000 87.943 -167.0799
187.500000 87.990 -167.4518
190.000000 88.021 -167.9827
192.500000 88.017 -168.4553
195.000000 88.004 -168.7601
197.500000 88.010 -169.1613
200.000000 88.022 -169.6236
203.000000 88.046 -169.7676
206.000000 88.058 -169.9359
209.000000 88.064 -170.3394
212.000000 88.079 -170.6868
214.000000 88.088 -170.9771
218.000000 88.083 -171.7459
220.000000 88.068 -172.0923
224.000000 88.042 -172.4733
227.000000 88.044 -172.6478
230.000000 88.057 -172.8310
233.000000 88.065 -173.1163
236.000000 88.034 -173.4340
240.000000 87.926 -173.0537
243.000000 87.986 -173.5082
247.000000 88.062 -174.2399
250.000000 88.072 -174.5814
254.000000 88.057 -175.0343
258.000000 88.034 -175.3989
262.000000 88.021 -175.7234
265.000000 88.010 -175.9881
269.000000 87.985 -176.3158
272.000000 87.965 -176.4626
276.000000 87.947 -176.6186
280.000000 87.941 -176.8021
285.000000 87.953 -177.0965
290.000000 87.966 -177.4434
295.000000 87.986 -177.5942
300.000000 87.976 -178.0157
304.000000 87.960 -178.4601
307.000000 87.958 -178.7485
311.000000 87.961 -179.0962
315.000000 87.956 -179.5061
320.000000 87.953 -179.9715
325.000000 87.958 179.6031
330.000000 87.933 179.1552
335.000000 87.888 178.8289
340.000000 87.857 178.3448
345.000000 87.850 177.7597
350.000000 87.818 177.2596
355.000000 87.749 176.6726
360.000000 87.715 176.2162
365.000000 87.687 175.6829
370.000000 87.614 175.1418
375.000000 87.521 174.8654
382.000000 87.379 174.7087
387.000000 87.292 174.7205
395.000000 87.216 174.7490
400.000000 87.193 174.5313
406.000000 87.194 174.3636
412.000000 87.182 174.0406
418.000000 87.141 173.5513
425.000000 87.070 172.8494
431.000000 86.974 172.2488
437.000000 86.850 171.7369
444.000000 86.669 171.3297
450.000000 86.503 171.2371
455.000000 86.371 171.2932
462.000000 86.206 171.5404
468.000000 86.083 171.8059
475.000000 85.941 172.0367
482.000000 85.805 172.4666
487.000000 85.716 172.9203
494.000000 85.607 173.5475
500.000000 85.522 174.0283
508.000000 85.409 174.7227
515.000000 85.319 175.4349
522.000000 85.243 176.1733
530.000000 85.178 177.0758
538.000000 85.130 177.9516
545.000000 85.099 178.7489
552.000000 85.077 179.5558
560.000000 85.066 -179.6367
570.000000 85.061 -178.6671
580.000000 85.076 -177.6356
590.000000 85.096 -176.7025
600.000000 85.115 -175.7841
608.000000 85.148 -174.9895
615.000000 85.202 -174.2441
622.000000 85.269 -173.6093
630.000000 85.337 -172.9951
640.000000 85.440 -172.1688
650.000000 85.584 -171.5508
660.000000 85.738 -171.1941
670.000000 85.879 -171.1106
680.000000 85.993 -171.0851
690.000000 86.109 -171.0844
700.000000 86.220 -171.3171
710.000000 86.295 -171.5595
720.000000 86.366 -171.6465
730.000000 86.457 -171.7808
740.000000 86.552 -172.1710
750.000000 86.620 -172.6119
762.000000 86.683 -173.0798
775.000000 86.759 -173.6489
788.000000 86.829 -174.5336
800.000000 86.861 -175.5045
812.000000 86.856 -176.4984
825.000000 86.806 -177.5576
838.000000 86.709 -178.7184
850.000000 86.534 -179.5735
862.000000 86.318 -179.8417
875.000000 86.105 -179.3653
885.000000 86.014 -178.6865
900.000000 85.954 -178.0984
912.000000 85.913 -177.7534
925.000000 85.881 -177.5213
938.000000 85.829 -177.4148
950.000000 85.765 -177.2810
962.000000 85.686 -177.0889
975.000000 85.600 -176.7076
988.000000 85.502 -176.2122
1000.000000 85.417 -175.3730
1015.000000 85.419 -174.1123
1030.000000 85.473 -173.5473
1044.000000 85.487 -173.3035
1060.000000 85.468 -173.1364
1075.000000 85.382 -172.8528
1090.000000 85.284 -171.7731
1106.000000 85.292 -170.3015
1120.000000 85.348 -169.4006
1138.000000 85.428 -168.3699
1150.000000 85.509 -167.7380
1172.000000 85.685 -167.0957
1180.000000 85.733 -167.0360
1206.000000 85.794 -166.7903
1220.000000 85.797 -166.2691
1241.000000 85.929 -164.5757
1250.000000 86.085 -164.0531
1265.000000 86.347 -164.3434
1280.000000 86.491 -165.3519
1315.000000 86.488 -166.6986
1320.000000 86.490 -166.7280
1340.000000 86.507 -167.0572
1360.000000 86.476 -167.3161
1380.000000 86.453 -167.3084
1400.000000 86.430 -167.2822
1430.000000 86.372 -166.9171
1450.000000 86.368 -166.3991
1475.000000 86.395 -165.7943
1500.000000 86.464 -165.2018
1525.000000 86.559 -164.9543
1550.000000 86.640 -164.8983
1575.000000 86.699 -165.0995
1600.000000 86.718 -165.2017
1625.000000 86.733 -165.2829
1650.000000 86.721 -165.4272
1675.000000 86.651 -165.5060
1700.000000 86.542 -164.8195
1725.000000 86.542 -163.4669
1750.000000 86.666 -162.4663
1775.000000 86.805 -162.1377
1800.000000 86.906 -162.0983
1825.000000 86.977 -162.1248
1850.000000 87.019 -162.1639
1875.000000 87.048 -162.0523
1900.000000 87.082 -161.8978
1925.000000 87.112 -161.7307
1950.000000 87.141 -161.4929
1975.000000 87.171 -161.2200
2000.000000 87.200 -160.9014
2030.000000 87.249 -160.4046
2060.000000 87.330 -159.8571
2090.000000 87.433 -159.4760
2120.000000 87.534 -159.2609
2140.000000 87.596 -159.1660
2180.000000 87.706 -158.9615
2200.000000 87.761 -158.8637
2240.000000 87.862 -158.6960
2270.000000 87.928 -158.5192
2300.000000 88.000 -158.2141
2330.000000 88.093 -157.8387
2360.000000 88.210 -157.4953
2400.000000 88.396 -157.2274
2430.000000 88.544 -157.2285
2470.000000 88.736 -157.4946
2500.000000 88.858 -157.8831
2540.000000 88.977 -158.4090
2580.000000 89.072 -158.7553
2620.000000 89.177 -158.9811
2650.000000 89.261 -159.2097
2690.000000 89.355 -159.5360
2720.000000 89.417 -159.6687
2760.000000 89.521 -159.6357
2800.000000 89.674 -159.6024
2850.000000 89.911 -159.9137
2900.000000 90.147 -160.7110
2950.000000 90.348 -161.8472
3000.000000 90.496 -163.1707
3040.000000 90.560 -164.2379
3070.000000 90.573 -164.8536
3110.000000 90.583 -165.1145
3150.000000 90.689 -164.6362
3200.000000 91.094 -164.3236
3250.000000 91.614 -166.1868
3300.000000 91.962 -169.7218
3350.000000 92.101 -173.6618
3400.000000 92.081 -177.4677
3450.000000 91.946 179.0867
3500.000000 91.737 176.0648
3550.000000 91.479 173.4302
3600.000000 91.188 171.1541
3650.000000 90.871 169.2036
3700.000000 90.532 167.5460
3750.000000 90.176 166.1790
3820.000000 89.666 164.7366
3870.000000 89.299 163.9611
3950.000000 88.694 163.0649
4000.000000 88.295 162.7155
4060.000000 87.787 162.5328
4120.000000 87.234 162.7289
4180.000000 86.639 163.4666
4250.000000 85.916 165.0614
4310.000000 85.231 166.8746
4370.000000 84.407 169.8583
4440.000000 83.356 176.4940
4500.000000 82.602 -173.8910
4550.000000 82.374 -162.2997
4620.000000 83.455 -142.2993
4680.000000 85.848 -129.2011
4750.000000 89.173 -126.5652
4820.000000 91.688 -135.9370
4870.000000 92.593 -146.0241
4940.000000 92.709 -159.1046
5000.000000 92.193 -166.4487
5080.000000 91.367 -170.4102
5150.000000 90.893 -169.9998
5220.000000 90.829 -167.6010
5300.000000 91.359 -164.4596
5380.000000 92.496 -163.4268
5450.000000 93.762 -166.2638
5520.000000 94.921 -173.2948
5600.000000 95.702 174.6410
5700.000000 95.548 157.5572
5800.000000 94.276 142.9602
5900.000000 92.306 133.3407
6000.000000 90.079 129.2601
6080.000000 88.320 129.7299
6150.000000 86.905 132.7314
6220.000000 85.717 137.8743
6300.000000 84.760 145.4010
6400.000000 84.188 155.2468
6500.000000 84.176 164.0973
6600.000000 84.594 171.0070
6700.000000 85.251 175.0611
6800.000000 85.898 176.2347
6900.000000 86.345 175.4707
7000.000000 86.548 174.1320
7100.000000 86.595 173.1746
7200.000000 86.613 172.7994
7300.000000 86.697 172.5797
7400.000000 86.845 171.7445
7500.000000 86.958 169.8946
7620.000000 86.907 166.7249
7750.000000 86.562 163.1138
7880.000000 85.931 160.2745
8000.000000 85.130 158.9947
8120.000000 84.145 159.7524
8250.000000 83.001 164.7114
8380.000000 82.365 176.1354
8500.000000 83.105 -170.6270
8620.000000 85.023 -163.1797
8750.000000 87.382 -164.9280
8850.000000 88.894 -172.1573
9000.000000 90.067 170.5583
9120.000000 89.793 155.0358
9250.000000 88.421 140.9142
9380.000000 86.377 131.6554
9500.000000 84.208 127.2592
9620.000000 81.837 126.4979
9750.000000 78.985 131.4061
9880.000000 76.187 149.3503
10000.000000 75.462 -175.9219
10150.000000 78.295 -144.2770
10300.000000 81.921 -137.0833
10440.000000 84.714 -140.7729
10600.000000 86.960 -151.4407
10750.000000 88.074 -164.4289
10900.000000 88.278 -177.3747
11060.000000 87.801 171.2957
11200.000000 87.133 163.4390
11380.000000 85.942 154.7654
11500.000000 84.800 150.5807
11720.000000 82.100 151.4347
11800.000000 81.185 156.0512
12060.000000 80.832 -179.7873
12200.000000 82.225 -172.6842
12410.000000 84.501 -174.0201
12500.000000 85.297 -177.3936
12650.000000 86.348 174.9482
12800.000000 87.120 165.6036
13150.000000 87.876 137.5535
13200.000000 87.808 132.9576
13400.000000 86.964 114.4001
13600.000000 85.217 97.7041
13800.000000 82.701 86.2349
14000.000000 80.012 83.4211
14300.000000 78.261 87.6182
14500.000000 78.704 83.1809
14750.000000 79.255 66.6259
15000.000000 79.012 42.8335
15250.000000 78.038 16.5497
15500.000000 76.835 -8.0175
15750.000000 76.135 -28.0773
16000.000000 76.263 -44.3799
16250.000000 76.696 -58.7360
16500.000000 76.961 -70.8472
16750.000000 77.073 -80.2776
17000.000000 77.180 -88.4457
17250.000000 77.162 -98.1304
17500.000000 76.544 -110.8011
17750.000000 74.653 -124.5756
18000.000000 71.010 -131.6744
18250.000000 66.776 -102.0613
18500.000000 67.599 -40.1995
18750.000000 70.714 -36.9172
19000.000000 72.702 -44.8431
19250.000000 73.794 -54.0896
19500.000000 74.452 -63.0848
19750.000000 74.865 -72.0921
20000.000000 75.017 -79.2358
