* Measurement data measured by REW V5.30
* Source: EXCL: FiiO JA11 (2- JadeAudio JA11), MICROPHONE (Master Volume), 0, volume: 1.000
* Format: 256k Log Swept Sine, 1 sweep at -18.0 dBFS with no timing reference
* Dated: Dec 8, 2024 3:00:01 PM
* REW Settings:
*  C-weighting compensation: Off
*  Target level: 75.0 dB
* Note: ; 
* Measurement: Aeolus (Au Hy Perf) R5
* Smoothing: 1/24 octave
* Frequency Step: 1/48 octave
* Start Frequency: 20.300 Hz
*
* Freq(Hz) SPL(dB) Phase(degrees)
20.299999 82.141 -95.3404
20.600000 82.223 -96.0668
20.900000 82.314 -96.8528
21.200001 82.406 -97.6380
21.400000 82.468 -98.1574
21.799999 82.597 -99.1833
22.000000 82.664 -99.6884
22.400000 82.796 -100.6809
22.700001 82.894 -101.4093
23.000000 82.987 -102.1236
23.299999 83.075 -102.8230
23.600000 83.157 -103.5060
24.000000 83.258 -104.3882
24.299999 83.330 -105.0278
24.700001 83.421 -105.8542
25.000000 83.488 -106.4588
25.400000 83.575 -107.2518
25.799999 83.656 -108.0351
26.200001 83.731 -108.8122
26.500000 83.784 -109.3932
26.900000 83.853 -110.1691
27.200001 83.904 -110.7522
27.600000 83.973 -111.5230
28.000000 84.047 -112.2667
28.500000 84.148 -113.1300
29.000000 84.263 -113.9311
29.500000 84.383 -114.7375
30.000000 84.490 -115.6043
30.400000 84.552 -116.3250
30.700001 84.586 -116.8513
31.100000 84.618 -117.4993
31.500000 84.650 -118.0740
32.000000 84.704 -118.7309
32.500000 84.778 -119.3958
33.000000 84.862 -120.1061
33.500000 84.941 -120.8372
34.000000 85.011 -121.5550
34.500000 85.073 -122.2545
35.000000 85.130 -122.9492
35.500000 85.189 -123.6434
36.000000 85.251 -124.3241
36.500000 85.320 -124.9735
37.000000 85.390 -125.5830
37.500000 85.458 -126.1614
38.200001 85.537 -126.9630
38.700001 85.581 -127.5610
39.500000 85.646 -128.6051
40.000000 85.696 -129.3288
40.599998 85.760 -130.2304
41.200001 85.817 -131.0254
41.799999 85.864 -131.5798
42.500000 85.919 -132.0216
43.099998 85.963 -132.4875
43.700001 85.990 -133.1562
44.400002 86.000 -134.0804
45.000000 86.006 -134.8500
45.500000 86.014 -135.4192
46.200001 86.026 -136.0820
46.799999 86.034 -136.5746
47.500000 86.046 -137.1867
48.200001 86.065 -137.8993
48.700001 86.088 -138.4568
49.400002 86.127 -139.2640
50.000000 86.142 -139.8824
50.799999 86.124 -140.3816
51.500000 86.102 -140.5727
52.200001 86.092 -140.8182
53.000000 86.088 -141.2352
53.799999 86.099 -141.5884
54.500000 86.118 -141.7671
55.200001 86.127 -141.8063
56.000000 86.136 -141.7723
57.000000 86.170 -142.0036
58.000000 86.230 -142.4729
59.000000 86.324 -142.8801
60.000000 86.385 -143.2428
60.799999 86.398 -143.4059
61.500000 86.417 -143.5225
62.200001 86.452 -143.7226
63.000000 86.503 -144.0414
64.000000 86.573 -144.4956
65.000000 86.641 -144.9944
66.000000 86.708 -145.5280
67.000000 86.761 -146.1187
68.000000 86.792 -146.6563
69.000000 86.830 -147.1520
70.000000 86.872 -147.7235
71.000000 86.897 -148.2962
72.000000 86.907 -148.8085
73.000000 86.909 -149.2906
74.000000 86.907 -149.7334
75.000000 86.909 -150.1115
76.199997 86.917 -150.4889
77.500000 86.928 -150.8274
78.800003 86.947 -151.1525
80.000000 86.973 -151.4485
81.199997 87.003 -151.7168
82.500000 87.043 -152.0235
83.800003 87.083 -152.3955
85.000000 87.112 -152.7474
86.199997 87.141 -153.0715
87.500000 87.163 -153.4313
88.500000 87.174 -153.6912
90.000000 87.205 -154.1193
91.199997 87.238 -154.4705
92.500000 87.278 -154.8053
93.800003 87.320 -155.1617
95.000000 87.343 -155.4818
96.199997 87.356 -155.8195
97.500000 87.360 -156.3114
98.800003 87.347 -156.7772
100.000000 87.343 -157.1296
101.500000 87.378 -157.6711
103.000000 87.414 -158.1626
104.400002 87.425 -158.4496
106.000000 87.432 -158.7234
107.500000 87.444 -159.0566
109.000000 87.452 -159.4064
110.599998 87.465 -159.6944
112.000000 87.481 -159.9648
113.800003 87.495 -160.3621
115.000000 87.500 -160.6447
117.199997 87.505 -161.1632
118.000000 87.503 -161.3678
120.599998 87.489 -161.9834
122.000000 87.480 -162.2547
124.099998 87.464 -162.6122
125.000000 87.457 -162.7375
126.500000 87.447 -162.9185
128.000000 87.439 -163.0575
131.500000 87.431 -163.3841
132.000000 87.431 -163.4368
134.000000 87.431 -163.6494
136.000000 87.427 -163.8549
138.000000 87.420 -164.0699
140.000000 87.410 -164.2924
143.000000 87.388 -164.4591
145.000000 87.365 -164.4904
147.500000 87.334 -164.5133
150.000000 87.308 -164.1500
152.500000 87.336 -163.9979
155.000000 87.413 -163.9697
157.500000 87.502 -163.8760
160.000000 87.603 -164.0531
162.500000 87.626 -164.1306
165.000000 87.658 -164.2461
167.500000 87.721 -164.4649
170.000000 87.780 -164.6743
172.500000 87.820 -164.9313
175.000000 87.857 -165.2491
177.500000 87.905 -165.6683
180.000000 87.942 -166.1845
182.500000 87.955 -166.4704
185.000000 87.991 -166.8828
187.500000 88.045 -167.3405
190.000000 88.075 -167.8132
192.500000 88.084 -168.0304
195.000000 88.105 -168.0946
197.500000 88.145 -168.1209
200.000000 88.199 -168.0567
203.000000 88.189 -168.7836
206.000000 88.194 -169.4143
209.000000 88.213 -169.7988
212.000000 88.201 -170.1819
214.000000 88.188 -170.4376
218.000000 88.169 -171.0003
220.000000 88.160 -171.2254
224.000000 88.147 -171.3578
227.000000 88.154 -171.4611
230.000000 88.174 -171.6890
233.000000 88.203 -172.1090
236.000000 88.206 -172.9277
240.000000 88.179 -173.9218
243.000000 88.259 -173.6780
247.000000 88.328 -173.8838
250.000000 88.330 -174.3660
254.000000 88.310 -174.9447
258.000000 88.275 -175.4143
262.000000 88.237 -175.7482
265.000000 88.218 -176.0088
269.000000 88.189 -176.3496
272.000000 88.162 -176.5741
276.000000 88.128 -176.7807
280.000000 88.116 -176.9200
285.000000 88.113 -177.1138
290.000000 88.107 -177.4217
295.000000 88.115 -177.5008
300.000000 88.118 -177.7980
304.000000 88.112 -178.1064
307.000000 88.114 -178.4176
311.000000 88.120 -178.7972
315.000000 88.130 -179.0711
320.000000 88.138 -179.3362
325.000000 88.125 -179.8973
330.000000 88.108 179.5209
335.000000 88.107 179.0221
340.000000 88.113 178.6548
345.000000 88.102 178.4161
350.000000 88.067 177.7209
355.000000 88.017 176.9146
360.000000 87.967 176.2785
365.000000 87.920 175.7739
370.000000 87.861 175.2923
375.000000 87.783 174.6625
382.000000 87.645 174.1572
387.000000 87.541 174.0714
395.000000 87.446 174.3073
400.000000 87.422 174.5374
406.000000 87.387 174.3886
412.000000 87.347 173.7874
418.000000 87.313 173.1492
425.000000 87.260 172.3235
431.000000 87.161 171.6201
437.000000 87.025 171.1346
444.000000 86.856 170.6066
450.000000 86.686 170.2766
455.000000 86.537 170.1965
462.000000 86.326 170.2668
468.000000 86.156 170.5112
475.000000 85.976 171.0124
482.000000 85.813 171.7586
487.000000 85.712 172.3806
494.000000 85.598 173.2656
500.000000 85.523 173.9575
508.000000 85.435 174.7977
515.000000 85.364 175.5364
522.000000 85.297 176.2766
530.000000 85.235 177.1950
538.000000 85.197 178.0485
545.000000 85.167 178.8338
552.000000 85.142 179.6459
560.000000 85.131 -179.5103
570.000000 85.136 -178.4882
580.000000 85.155 -177.3719
590.000000 85.186 -176.3581
600.000000 85.225 -175.3569
608.000000 85.263 -174.5385
615.000000 85.315 -173.8193
622.000000 85.387 -173.2042
630.000000 85.473 -172.5760
640.000000 85.608 -171.7726
650.000000 85.765 -171.2638
660.000000 85.922 -171.0954
670.000000 86.053 -171.1415
680.000000 86.158 -171.1753
690.000000 86.265 -171.1608
700.000000 86.370 -171.3571
710.000000 86.446 -171.7185
720.000000 86.494 -172.0843
730.000000 86.538 -172.2984
740.000000 86.592 -172.4558
750.000000 86.644 -172.6032
762.000000 86.722 -172.7550
775.000000 86.825 -173.1537
788.000000 86.930 -173.8548
800.000000 86.998 -174.8672
812.000000 87.006 -176.0456
825.000000 86.968 -177.2352
838.000000 86.858 -178.5432
850.000000 86.660 -179.4104
862.000000 86.444 -179.5657
875.000000 86.247 -179.0710
885.000000 86.161 -178.4098
900.000000 86.107 -177.8302
912.000000 86.065 -177.5725
925.000000 86.022 -177.3938
938.000000 85.955 -177.2931
950.000000 85.883 -177.0310
962.000000 85.803 -176.7933
975.000000 85.705 -176.3468
988.000000 85.625 -175.6024
1000.000000 85.587 -174.6966
1015.000000 85.623 -173.5832
1030.000000 85.705 -173.2200
1044.000000 85.720 -173.2301
1060.000000 85.671 -173.2865
1075.000000 85.561 -172.9244
1090.000000 85.475 -171.9357
1106.000000 85.477 -170.7254
1120.000000 85.512 -169.9268
1138.000000 85.560 -168.9966
1150.000000 85.595 -168.4100
1172.000000 85.676 -167.4281
1180.000000 85.697 -167.1548
1206.000000 85.768 -165.3434
1220.000000 85.970 -164.1355
1241.000000 86.341 -164.2314
1250.000000 86.445 -164.7083
1265.000000 86.537 -165.5540
1280.000000 86.570 -166.1562
1315.000000 86.555 -167.0290
1320.000000 86.546 -167.0702
1340.000000 86.517 -167.0571
1360.000000 86.506 -166.8932
1380.000000 86.510 -166.7274
1400.000000 86.522 -166.5121
1430.000000 86.528 -166.3003
1450.000000 86.536 -165.9391
1475.000000 86.579 -165.5227
1500.000000 86.639 -165.2713
1525.000000 86.681 -165.2103
1550.000000 86.701 -165.0492
1575.000000 86.727 -164.8476
1600.000000 86.763 -164.5830
1625.000000 86.818 -164.4831
1650.000000 86.848 -164.6395
1675.000000 86.802 -164.8540
1700.000000 86.697 -164.3057
1725.000000 86.692 -163.0121
1750.000000 86.812 -162.0567
1775.000000 86.942 -161.7310
1800.000000 87.039 -161.6318
1825.000000 87.118 -161.5919
1850.000000 87.176 -161.6086
1875.000000 87.215 -161.5669
1900.000000 87.249 -161.4828
1925.000000 87.274 -161.3466
1950.000000 87.300 -161.0880
1975.000000 87.338 -160.7716
2000.000000 87.384 -160.4625
2030.000000 87.444 -160.0800
2060.000000 87.526 -159.6521
2090.000000 87.623 -159.4023
2120.000000 87.713 -159.2674
2140.000000 87.764 -159.2055
2180.000000 87.854 -159.0130
2200.000000 87.902 -158.8889
2240.000000 88.002 -158.6696
2270.000000 88.074 -158.5099
2300.000000 88.146 -158.2816
2330.000000 88.230 -158.0228
2360.000000 88.325 -157.7537
2400.000000 88.483 -157.4501
2430.000000 88.618 -157.3961
2470.000000 88.794 -157.6048
2500.000000 88.902 -157.9403
2540.000000 89.006 -158.3587
2580.000000 89.097 -158.6089
2620.000000 89.194 -158.8144
2650.000000 89.262 -158.9973
2690.000000 89.340 -159.1653
2720.000000 89.398 -159.1559
2760.000000 89.504 -158.9663
2800.000000 89.662 -158.8173
2850.000000 89.902 -159.0261
2900.000000 90.136 -159.6836
2950.000000 90.340 -160.6226
3000.000000 90.501 -161.8009
3040.000000 90.570 -162.7641
3070.000000 90.587 -163.2576
3110.000000 90.610 -163.2885
3150.000000 90.753 -162.5953
3200.000000 91.218 -162.2541
3250.000000 91.772 -164.2787
3300.000000 92.126 -167.9287
3350.000000 92.265 -171.8439
3400.000000 92.262 -175.5625
3450.000000 92.156 -178.9921
3500.000000 91.974 177.9344
3550.000000 91.737 175.2337
3600.000000 91.463 172.8795
3650.000000 91.160 170.8412
3700.000000 90.834 169.1009
3750.000000 90.490 167.6414
3820.000000 89.988 166.0680
3870.000000 89.622 165.2198
3950.000000 89.016 164.2663
4000.000000 88.616 163.9340
4060.000000 88.113 163.8584
4120.000000 87.583 164.2228
4180.000000 87.035 165.1242
4250.000000 86.401 166.7945
4310.000000 85.823 168.4705
4370.000000 85.127 170.9244
4440.000000 84.196 176.1800
4500.000000 83.443 -175.9724
4550.000000 83.090 -165.9983
4620.000000 83.813 -147.3351
4680.000000 85.940 -133.7148
4750.000000 89.148 -129.8440
4820.000000 91.652 -138.3872
4870.000000 92.570 -148.1675
4940.000000 92.709 -161.1429
5000.000000 92.196 -168.6686
5080.000000 91.307 -173.0637
5150.000000 90.706 -172.8698
5220.000000 90.474 -170.2531
5300.000000 90.820 -166.1983
5380.000000 91.856 -163.6103
5450.000000 93.156 -164.8989
5520.000000 94.450 -170.7243
5600.000000 95.442 177.8213
5700.000000 95.510 160.2941
5800.000000 94.287 144.5603
5900.000000 92.212 134.3164
6000.000000 89.831 130.5303
6080.000000 87.975 131.8208
6150.000000 86.527 135.8412
6220.000000 85.371 142.1611
6300.000000 84.547 150.9308
6400.000000 84.249 161.5372
6500.000000 84.521 170.0328
6600.000000 85.130 175.8782
6700.000000 85.870 178.7910
6800.000000 86.538 179.0760
6900.000000 86.990 177.6835
7000.000000 87.207 175.8519
7100.000000 87.289 174.3456
7200.000000 87.339 173.1361
7300.000000 87.402 171.8354
7400.000000 87.460 169.9861
7500.000000 87.431 167.3892
7620.000000 87.169 163.8490
7750.000000 86.595 160.6392
7880.000000 85.811 158.9519
8000.000000 85.000 158.9564
8120.000000 84.122 160.5738
8250.000000 83.147 165.4711
8380.000000 82.584 175.7103
8500.000000 83.227 -171.9435
8620.000000 85.051 -164.4594
8750.000000 87.377 -166.1437
8850.000000 88.853 -173.5856
9000.000000 89.885 168.8491
9120.000000 89.459 153.6577
9250.000000 87.971 140.5576
9380.000000 85.913 132.5397
9500.000000 83.822 129.0608
9620.000000 81.601 128.6166
9750.000000 78.931 132.4263
9880.000000 76.086 146.6974
10000.000000 74.886 -178.1180
10150.000000 77.811 -138.3187
10300.000000 81.862 -130.4491
10440.000000 84.863 -135.3644
10600.000000 87.170 -147.3678
10750.000000 88.268 -161.0215
10900.000000 88.474 -174.0764
11060.000000 88.097 174.7228
11200.000000 87.611 166.5712
11380.000000 86.680 156.1975
11500.000000 85.637 149.9525
11720.000000 82.701 145.7873
11800.000000 81.481 148.9336
12060.000000 79.995 177.4975
12200.000000 81.418 -171.6794
12410.000000 83.994 -171.3552
12500.000000 84.890 -174.6554
12650.000000 86.051 177.5139
12800.000000 86.867 167.8884
13150.000000 87.675 139.8973
13200.000000 87.633 135.3247
13400.000000 86.948 116.4960
13600.000000 85.378 98.6928
13800.000000 82.956 84.9777
14000.000000 80.058 79.2603
14300.000000 77.381 84.0712
14500.000000 77.634 82.1439
14750.000000 78.164 66.2917
15000.000000 77.533 42.6721
15250.000000 75.964 19.1006
15500.000000 74.592 -1.4476
15750.000000 74.160 -19.6293
16000.000000 74.415 -35.6517
16250.000000 74.843 -48.7794
16500.000000 75.347 -58.4919
16750.000000 75.936 -66.7021
17000.000000 76.363 -75.1378
17250.000000 76.504 -84.4325
17500.000000 76.134 -96.0748
17750.000000 74.617 -109.3914
18000.000000 71.380 -117.3706
18250.000000 67.245 -94.6942
18500.000000 67.393 -37.3091
18750.000000 70.281 -30.4673
19000.000000 72.153 -37.0032
19250.000000 73.018 -44.9606
19500.000000 73.448 -51.2633
19750.000000 73.869 -56.3914
20000.000000 74.161 -60.5555
