* Measurement data measured by REW V5.30
* Source: EXCL: FiiO JA11 (2- JadeAudio JA11), MICROPHONE (Master Volume), 0, volume: 1.000
* Format: 256k Log Swept Sine, 1 sweep at -18.0 dBFS with no timing reference
* Dated: Dec 8, 2024 2:54:39 PM
* REW Settings:
*  C-weighting compensation: Off
*  Target level: 75.0 dB
* Note: ; 
* Measurement: Aeolus (Au Hy Perf) L3
* Smoothing: 1/24 octave
* Frequency Step: 1/48 octave
* Start Frequency: 20.300 Hz
*
* Freq(Hz) SPL(dB) Phase(degrees)
20.299999 83.564 -99.2383
20.600000 83.651 -99.9535
20.900000 83.745 -100.7606
21.200001 83.832 -101.6018
21.400000 83.885 -102.1673
21.799999 83.980 -103.2648
22.000000 84.026 -103.7805
22.400000 84.124 -104.7390
22.700001 84.209 -105.4228
23.000000 84.304 -106.1190
23.299999 84.404 -106.8577
23.600000 84.501 -107.6431
24.000000 84.611 -108.7151
24.299999 84.676 -109.4813
24.700001 84.748 -110.3888
25.000000 84.798 -110.9820
25.400000 84.873 -111.7174
25.799999 84.957 -112.4850
26.200001 85.042 -113.3426
26.500000 85.099 -114.0287
26.900000 85.163 -114.9297
27.200001 85.204 -115.5455
27.600000 85.260 -116.2514
28.000000 85.323 -116.8506
28.500000 85.413 -117.5643
29.000000 85.507 -118.3741
29.500000 85.591 -119.3423
30.000000 85.662 -120.4333
30.400000 85.712 -121.3302
30.700001 85.750 -121.9781
31.100000 85.803 -122.7715
31.500000 85.863 -123.4674
32.000000 85.945 -124.2266
32.500000 86.025 -124.9327
33.000000 86.087 -125.6380
33.500000 86.126 -126.3376
34.000000 86.153 -127.0047
34.500000 86.185 -127.6419
35.000000 86.230 -128.2795
35.500000 86.283 -128.9254
36.000000 86.336 -129.5496
36.500000 86.391 -130.1354
37.000000 86.453 -130.7333
37.500000 86.520 -131.4315
38.200001 86.592 -132.5922
38.700001 86.614 -133.3850
39.500000 86.633 -134.2879
40.000000 86.665 -134.7361
40.599998 86.721 -135.4409
41.200001 86.762 -136.3619
41.799999 86.780 -137.2457
42.500000 86.812 -137.9898
43.099998 86.860 -138.5019
43.700001 86.896 -139.0385
44.400002 86.897 -139.6521
45.000000 86.891 -140.1662
45.500000 86.900 -140.6949
46.200001 86.920 -141.6613
46.799999 86.920 -142.5003
47.500000 86.908 -143.1982
48.200001 86.902 -143.6886
48.700001 86.894 -144.0838
49.400002 86.859 -144.7420
50.000000 86.815 -145.2641
50.799999 86.784 -145.7346
51.500000 86.799 -145.9823
52.200001 86.830 -146.1346
53.000000 86.860 -146.2109
53.799999 86.885 -146.2982
54.500000 86.904 -146.4987
55.200001 86.922 -146.8415
56.000000 86.940 -147.3620
57.000000 86.961 -148.0354
58.000000 87.004 -148.6617
59.000000 87.038 -149.3516
60.000000 87.018 -149.7922
60.799999 87.002 -149.8888
61.500000 87.009 -149.9738
62.200001 87.028 -150.1254
63.000000 87.057 -150.3498
64.000000 87.087 -150.6629
65.000000 87.107 -150.9725
66.000000 87.130 -151.3843
67.000000 87.144 -151.8405
68.000000 87.166 -152.2172
69.000000 87.195 -152.6440
70.000000 87.211 -153.0521
71.000000 87.221 -153.3690
72.000000 87.224 -153.6630
73.000000 87.223 -153.8946
74.000000 87.232 -154.0092
75.000000 87.251 -154.0663
76.199997 87.277 -154.2233
77.500000 87.314 -154.4728
78.800003 87.350 -154.7073
80.000000 87.371 -154.8815
81.199997 87.415 -155.1708
82.500000 87.479 -155.5919
83.800003 87.535 -155.9702
85.000000 87.581 -156.3327
86.199997 87.637 -156.7011
87.500000 87.690 -157.0725
88.500000 87.717 -157.3816
90.000000 87.753 -157.9077
91.199997 87.790 -158.3224
92.500000 87.829 -158.8624
93.800003 87.851 -159.5196
95.000000 87.867 -160.0206
96.199997 87.891 -160.4520
97.500000 87.909 -160.9938
98.800003 87.898 -161.6353
100.000000 87.868 -162.1850
101.500000 87.851 -162.7634
103.000000 87.825 -163.3115
104.400002 87.786 -163.6632
106.000000 87.744 -163.9143
107.500000 87.704 -164.0540
109.000000 87.682 -164.1770
110.599998 87.673 -164.2244
112.000000 87.677 -164.3047
113.800003 87.692 -164.4686
115.000000 87.708 -164.6112
117.199997 87.737 -165.0158
118.000000 87.746 -165.1800
120.599998 87.759 -165.8167
122.000000 87.749 -166.1366
124.099998 87.722 -166.5752
125.000000 87.707 -166.7409
126.500000 87.681 -166.9735
128.000000 87.659 -167.1641
131.500000 87.605 -167.5618
132.000000 87.597 -167.6132
134.000000 87.560 -167.7656
136.000000 87.523 -167.8186
138.000000 87.494 -167.8020
140.000000 87.474 -167.7115
143.000000 87.462 -167.5869
145.000000 87.456 -167.5432
147.500000 87.458 -167.4745
150.000000 87.494 -167.4372
152.500000 87.511 -167.1084
155.000000 87.542 -166.7736
157.500000 87.588 -166.6384
160.000000 87.617 -166.6194
162.500000 87.707 -166.8125
165.000000 87.788 -167.0711
167.500000 87.847 -167.4097
170.000000 87.908 -167.7337
172.500000 87.960 -168.0312
175.000000 87.991 -168.3316
177.500000 88.011 -168.4731
180.000000 88.047 -168.6401
182.500000 88.080 -169.1241
185.000000 88.082 -169.7056
187.500000 88.070 -169.8730
190.000000 88.083 -169.7071
192.500000 88.110 -169.7553
195.000000 88.131 -170.2338
197.500000 88.135 -170.6254
200.000000 88.131 -170.7427
203.000000 88.159 -170.8240
206.000000 88.189 -171.1495
209.000000 88.221 -171.5542
212.000000 88.255 -171.8586
214.000000 88.275 -171.9457
218.000000 88.322 -172.2451
220.000000 88.360 -172.5833
224.000000 88.402 -173.1569
227.000000 88.428 -173.4881
230.000000 88.459 -173.9708
233.000000 88.494 -174.6570
236.000000 88.559 -175.4144
240.000000 88.643 -175.7311
243.000000 88.544 -176.1330
247.000000 88.393 -176.8299
250.000000 88.334 -177.1461
254.000000 88.278 -177.2931
258.000000 88.239 -177.5308
262.000000 88.215 -177.6314
265.000000 88.205 -177.6393
269.000000 88.202 -177.7431
272.000000 88.204 -177.8396
276.000000 88.211 -177.9878
280.000000 88.222 -178.1394
285.000000 88.250 -178.4324
290.000000 88.267 -178.9016
295.000000 88.286 -179.5376
300.000000 88.285 -179.9434
304.000000 88.267 179.9091
307.000000 88.258 179.6614
311.000000 88.251 179.2931
315.000000 88.231 179.0465
320.000000 88.202 178.7369
325.000000 88.229 178.2397
330.000000 88.252 177.7673
335.000000 88.243 177.1979
340.000000 88.224 176.6202
345.000000 88.215 176.0175
350.000000 88.190 175.3346
355.000000 88.152 174.5600
360.000000 88.101 173.9760
365.000000 88.012 173.5491
370.000000 87.920 173.0934
375.000000 87.821 172.5437
382.000000 87.654 171.9153
387.000000 87.515 171.6721
395.000000 87.310 171.7307
400.000000 87.206 171.8062
406.000000 87.110 172.1951
412.000000 87.036 172.6088
418.000000 86.984 172.9548
425.000000 86.957 173.2335
431.000000 86.916 173.2961
437.000000 86.868 173.3634
444.000000 86.812 173.4566
450.000000 86.767 173.6420
455.000000 86.738 173.8098
462.000000 86.696 173.9672
468.000000 86.650 174.0774
475.000000 86.610 174.1788
482.000000 86.590 174.2219
487.000000 86.579 174.1934
494.000000 86.553 174.1656
500.000000 86.517 174.1431
508.000000 86.454 174.0864
515.000000 86.395 174.0232
522.000000 86.334 174.0101
530.000000 86.255 174.1063
538.000000 86.171 174.2306
545.000000 86.090 174.3887
552.000000 86.012 174.6674
560.000000 85.936 175.1387
570.000000 85.868 175.7205
580.000000 85.816 176.3083
590.000000 85.779 176.8925
600.000000 85.761 177.4110
608.000000 85.742 177.7474
615.000000 85.723 178.0338
622.000000 85.702 178.3811
630.000000 85.683 178.8535
640.000000 85.680 179.2976
650.000000 85.668 179.6842
660.000000 85.657 -179.9722
670.000000 85.606 -179.8246
680.000000 85.494 -179.1396
690.000000 85.459 -177.5912
700.000000 85.562 -176.2568
710.000000 85.693 -175.6240
720.000000 85.801 -175.1790
730.000000 85.929 -174.8564
740.000000 86.051 -174.8751
750.000000 86.149 -174.9842
762.000000 86.256 -175.2124
775.000000 86.357 -175.5581
788.000000 86.440 -176.2296
800.000000 86.465 -176.9596
812.000000 86.460 -177.5683
825.000000 86.417 -178.3634
838.000000 86.289 -178.8049
850.000000 86.173 -178.5983
862.000000 86.108 -178.2698
875.000000 86.065 -177.7782
885.000000 86.078 -177.2838
900.000000 86.172 -177.1214
912.000000 86.218 -177.5274
925.000000 86.193 -178.1301
938.000000 86.114 -178.4975
950.000000 86.037 -178.6496
962.000000 85.948 -178.7979
975.000000 85.811 -178.7451
988.000000 85.669 -178.1585
1000.000000 85.592 -177.2468
1015.000000 85.593 -176.1949
1030.000000 85.636 -175.6360
1044.000000 85.662 -175.4826
1060.000000 85.613 -175.5345
1075.000000 85.523 -175.0556
1090.000000 85.452 -174.2180
1106.000000 85.435 -172.8817
1120.000000 85.531 -171.7297
1138.000000 85.708 -171.4060
1150.000000 85.758 -171.6064
1172.000000 85.732 -171.7195
1180.000000 85.708 -171.5143
1206.000000 85.738 -170.2583
1220.000000 85.836 -169.8484
1241.000000 85.950 -169.9803
1250.000000 85.969 -170.1199
1265.000000 85.966 -170.3190
1280.000000 85.932 -170.3144
1315.000000 85.902 -169.4682
1320.000000 85.907 -169.3474
1340.000000 85.940 -168.8818
1360.000000 85.991 -168.6195
1380.000000 86.007 -168.5935
1400.000000 85.997 -168.3463
1430.000000 86.009 -167.9078
1450.000000 85.996 -167.6671
1475.000000 85.972 -167.0619
1500.000000 85.991 -166.2341
1525.000000 86.053 -165.6508
1550.000000 86.095 -165.3535
1575.000000 86.095 -165.0313
1600.000000 86.057 -164.5148
1625.000000 86.016 -163.3732
1650.000000 86.072 -161.7823
1675.000000 86.236 -160.4941
1700.000000 86.426 -159.8036
1725.000000 86.596 -159.4356
1750.000000 86.746 -159.2397
1775.000000 86.877 -159.1286
1800.000000 86.988 -159.0661
1825.000000 87.085 -158.9397
1850.000000 87.186 -158.7742
1875.000000 87.288 -158.6346
1900.000000 87.391 -158.5329
1925.000000 87.486 -158.4521
1950.000000 87.582 -158.3278
1975.000000 87.686 -158.2152
2000.000000 87.794 -158.1643
2030.000000 87.920 -158.1280
2060.000000 88.066 -158.0964
2090.000000 88.213 -158.4430
2120.000000 88.301 -158.9505
2140.000000 88.334 -159.1685
2180.000000 88.391 -159.2184
2200.000000 88.426 -159.1421
2240.000000 88.499 -158.8015
2270.000000 88.586 -158.1822
2300.000000 88.757 -157.4829
2330.000000 88.991 -157.2116
2360.000000 89.227 -157.3820
2400.000000 89.520 -158.0184
2430.000000 89.716 -158.7809
2470.000000 89.922 -160.0120
2500.000000 90.040 -160.9313
2540.000000 90.171 -162.0428
2580.000000 90.294 -163.0356
2620.000000 90.423 -164.0149
2650.000000 90.519 -164.7960
2690.000000 90.644 -165.8999
2720.000000 90.736 -166.7835
2760.000000 90.853 -168.1021
2800.000000 90.945 -169.5578
2850.000000 91.021 -171.3718
2900.000000 91.084 -173.1916
2950.000000 91.104 -175.1690
3000.000000 91.066 -177.0556
3040.000000 91.001 -178.3329
3070.000000 90.947 -179.0495
3110.000000 90.910 -179.6913
3150.000000 90.947 179.7028
3200.000000 91.056 178.3329
3250.000000 91.118 176.2851
3300.000000 91.116 174.2089
3350.000000 91.114 172.0980
3400.000000 91.093 169.5842
3450.000000 91.000 166.7607
3500.000000 90.823 163.9158
3550.000000 90.578 161.1713
3600.000000 90.272 158.5525
3650.000000 89.910 156.1182
3700.000000 89.493 153.9182
3750.000000 89.024 151.9941
3820.000000 88.294 149.8414
3870.000000 87.728 148.7003
3950.000000 86.747 147.5849
4000.000000 86.077 147.4253
4060.000000 85.221 147.9614
4120.000000 84.317 149.4138
4180.000000 83.367 152.0140
4250.000000 82.262 157.3971
4310.000000 81.551 164.4436
4370.000000 81.240 171.0601
4440.000000 80.743 176.2067
4500.000000 79.961 -176.3017
4550.000000 79.500 -165.0229
4620.000000 80.277 -143.0174
4680.000000 82.604 -127.1542
4750.000000 86.047 -121.6390
4820.000000 88.847 -128.8259
4870.000000 90.033 -138.1935
4940.000000 90.517 -151.7819
5000.000000 90.164 -160.4710
5080.000000 89.298 -166.2390
5150.000000 88.617 -166.7167
5220.000000 88.253 -164.1888
5300.000000 88.457 -159.3607
5380.000000 89.432 -155.6628
5450.000000 90.658 -156.2715
5520.000000 91.776 -161.1208
5600.000000 92.538 -169.9632
5700.000000 92.659 178.0473
5800.000000 92.103 167.4001
5900.000000 91.064 159.2896
6000.000000 89.769 154.4362
6080.000000 88.687 152.7848
6150.000000 87.768 152.8380
6220.000000 86.923 154.1890
6300.000000 86.113 156.9917
6400.000000 85.390 161.4651
6500.000000 84.952 166.1025
6600.000000 84.728 170.4011
6700.000000 84.634 174.0814
6800.000000 84.613 177.4777
6900.000000 84.701 -179.3023
7000.000000 84.897 -176.6801
7100.000000 85.154 -174.8525
7200.000000 85.417 -173.8610
7300.000000 85.634 -173.4803
7400.000000 85.810 -173.3423
7500.000000 85.982 -173.3883
7620.000000 86.188 -173.9992
7750.000000 86.335 -175.7120
7880.000000 86.236 -178.1351
8000.000000 85.874 -179.4854
8120.000000 85.439 -178.8867
8250.000000 85.116 -176.4269
8380.000000 85.073 -173.1295
8500.000000 85.262 -170.3596
8620.000000 85.616 -168.1143
8750.000000 86.193 -166.4201
8850.000000 86.797 -165.9577
9000.000000 87.942 -167.9789
9120.000000 88.874 -173.2354
9250.000000 89.506 177.1329
9380.000000 89.356 165.1425
9500.000000 88.367 154.9814
9620.000000 86.723 148.7243
9750.000000 84.649 148.2063
9880.000000 82.803 153.8851
10000.000000 81.644 163.0282
10150.000000 81.170 176.7695
10300.000000 81.778 -170.5441
10440.000000 83.076 -162.4117
10600.000000 84.958 -159.2754
10750.000000 86.631 -162.4308
10900.000000 87.828 -170.0992
11060.000000 88.381 179.3296
11200.000000 88.307 169.9015
11380.000000 87.567 158.6771
11500.000000 86.665 152.4919
11720.000000 84.249 146.7342
11800.000000 83.199 147.5743
12060.000000 80.891 168.8956
12200.000000 81.860 -176.4773
12410.000000 84.604 -172.6015
12500.000000 85.586 -175.7188
12650.000000 86.802 176.2365
12800.000000 87.577 166.3528
13150.000000 87.985 139.4615
13200.000000 87.871 135.4529
13400.000000 87.036 120.2537
13600.000000 85.875 106.9326
13800.000000 84.586 94.3143
14000.000000 83.002 82.2663
14300.000000 80.258 68.3839
14500.000000 78.850 59.3504
14750.000000 77.282 41.1559
15000.000000 74.453 17.9614
15250.000000 70.310 -0.9060
15500.000000 66.994 -12.2674
15750.000000 67.493 -21.1018
16000.000000 70.250 -35.4076
16250.000000 72.407 -52.9308
16500.000000 73.455 -67.3644
16750.000000 74.145 -75.3782
17000.000000 75.213 -81.7677
17250.000000 76.051 -92.6632
17500.000000 75.712 -107.1215
17750.000000 73.727 -118.9567
18000.000000 70.408 -118.7985
18250.000000 67.372 -100.4639
18500.000000 66.456 -78.9429
18750.000000 67.049 -62.9313
19000.000000 68.914 -51.8018
19250.000000 71.233 -52.7061
19500.000000 72.783 -63.9219
19750.000000 73.236 -78.9835
20000.000000 73.064 -90.9604
