* Measurement data measured by REW V5.30
* Source: EXCL: FiiO JA11 (2- JadeAudio JA11), MICROPHONE (Master Volume), 0, volume: 1.000
* Format: 256k Log Swept Sine, 1 sweep at -18.0 dBFS with no timing reference
* Dated: Dec 8, 2024 2:54:16 PM
* REW Settings:
*  C-weighting compensation: Off
*  Target level: 75.0 dB
* Note: ; 
* Measurement: Aeolus (Au Hy Perf) L2
* Smoothing: 1/24 octave
* Frequency Step: 1/48 octave
* Start Frequency: 20.300 Hz
*
* Freq(Hz) SPL(dB) Phase(degrees)
20.299999 83.322 -98.3394
20.600000 83.401 -99.1042
20.900000 83.487 -99.9366
21.200001 83.574 -100.7721
21.400000 83.632 -101.3239
21.799999 83.750 -102.3984
22.000000 83.810 -102.9143
22.400000 83.932 -103.8940
22.700001 84.023 -104.5859
23.000000 84.114 -105.2535
23.299999 84.201 -105.9148
23.600000 84.284 -106.5895
24.000000 84.386 -107.5369
24.299999 84.454 -108.2908
24.700001 84.535 -109.3392
25.000000 84.590 -110.1327
25.400000 84.658 -111.1527
25.799999 84.728 -112.0840
26.200001 84.804 -112.9075
26.500000 84.866 -113.4655
26.900000 84.955 -114.1655
27.200001 85.022 -114.6844
27.600000 85.108 -115.3972
28.000000 85.185 -116.1447
28.500000 85.268 -117.1119
29.000000 85.342 -118.0742
29.500000 85.414 -118.9883
30.000000 85.488 -119.8309
30.400000 85.550 -120.4593
30.700001 85.597 -120.9170
31.100000 85.659 -121.5305
31.500000 85.716 -122.1665
32.000000 85.777 -122.9942
32.500000 85.829 -123.8215
33.000000 85.878 -124.6038
33.500000 85.935 -125.3333
34.000000 85.998 -126.0348
34.500000 86.061 -126.7269
35.000000 86.119 -127.4065
35.500000 86.171 -128.0746
36.000000 86.219 -128.7505
36.500000 86.262 -129.4444
37.000000 86.301 -130.1288
37.500000 86.339 -130.7652
38.200001 86.401 -131.5950
38.700001 86.451 -132.2143
39.500000 86.517 -133.2842
40.000000 86.548 -133.9387
40.599998 86.586 -134.6714
41.200001 86.631 -135.3837
41.799999 86.676 -136.1141
42.500000 86.716 -136.9897
43.099998 86.732 -137.7321
43.700001 86.738 -138.4198
44.400002 86.748 -139.1237
45.000000 86.769 -139.7030
45.500000 86.790 -140.2193
46.200001 86.804 -140.9910
46.799999 86.801 -141.6578
47.500000 86.789 -142.4133
48.200001 86.782 -143.0868
48.700001 86.789 -143.4852
49.400002 86.814 -143.9857
50.000000 86.827 -144.4366
50.799999 86.791 -144.9870
51.500000 86.733 -145.2725
52.200001 86.696 -145.4270
53.000000 86.697 -145.6360
53.799999 86.723 -145.9444
54.500000 86.746 -146.2743
55.200001 86.765 -146.6186
56.000000 86.792 -146.9977
57.000000 86.823 -147.4606
58.000000 86.817 -147.8082
59.000000 86.807 -148.1126
60.000000 86.822 -148.6280
60.799999 86.847 -149.0486
61.500000 86.880 -149.3006
62.200001 86.919 -149.4902
63.000000 86.957 -149.7313
64.000000 86.986 -150.1437
65.000000 87.002 -150.6233
66.000000 87.018 -151.0470
67.000000 87.040 -151.4468
68.000000 87.051 -151.8618
69.000000 87.046 -152.2273
70.000000 87.040 -152.5261
71.000000 87.038 -152.7989
72.000000 87.036 -153.0229
73.000000 87.044 -153.1690
74.000000 87.064 -153.2945
75.000000 87.084 -153.3798
76.199997 87.118 -153.4646
77.500000 87.175 -153.6692
78.800003 87.245 -153.9299
80.000000 87.305 -154.2103
81.199997 87.350 -154.5323
82.500000 87.404 -154.8953
83.800003 87.463 -155.3178
85.000000 87.510 -155.7364
86.199997 87.548 -156.1494
87.500000 87.592 -156.6063
88.500000 87.627 -156.9807
90.000000 87.673 -157.5405
91.199997 87.702 -157.9729
92.500000 87.730 -158.4901
93.800003 87.758 -159.1380
95.000000 87.778 -159.7686
96.199997 87.786 -160.3471
97.500000 87.786 -160.9889
98.800003 87.792 -161.6096
100.000000 87.789 -162.0897
101.500000 87.733 -162.4886
103.000000 87.687 -162.7644
104.400002 87.665 -163.0305
106.000000 87.625 -163.2369
107.500000 87.593 -163.2954
109.000000 87.595 -163.3176
110.599998 87.606 -163.3974
112.000000 87.624 -163.5459
113.800003 87.658 -163.8516
115.000000 87.680 -164.0886
117.199997 87.707 -164.5911
118.000000 87.713 -164.7925
120.599998 87.720 -165.5135
122.000000 87.712 -165.9212
124.099998 87.683 -166.4353
125.000000 87.665 -166.6099
126.500000 87.633 -166.8343
128.000000 87.602 -167.0032
131.500000 87.541 -167.3277
132.000000 87.533 -167.3658
134.000000 87.501 -167.4697
136.000000 87.469 -167.5125
138.000000 87.443 -167.4933
140.000000 87.430 -167.4153
143.000000 87.420 -167.3269
145.000000 87.426 -167.2678
147.500000 87.451 -167.2237
150.000000 87.511 -167.0087
152.500000 87.536 -166.8528
155.000000 87.558 -166.7981
157.500000 87.614 -167.0168
160.000000 87.689 -167.5222
162.500000 87.750 -167.4573
165.000000 87.807 -167.4534
167.500000 87.859 -167.8087
170.000000 87.897 -168.2310
172.500000 87.932 -168.5599
175.000000 87.961 -168.9050
177.500000 87.974 -169.3781
180.000000 87.969 -169.7567
182.500000 87.985 -169.8952
185.000000 88.023 -170.0976
187.500000 88.049 -170.4186
190.000000 88.070 -170.8915
192.500000 88.063 -171.4498
195.000000 88.045 -171.9036
197.500000 88.032 -172.2794
200.000000 88.018 -172.6029
203.000000 87.966 -172.8977
206.000000 87.904 -172.9150
209.000000 87.883 -172.9436
212.000000 87.870 -172.7518
214.000000 87.862 -172.5215
218.000000 87.903 -172.3977
220.000000 87.923 -172.3527
224.000000 87.957 -172.5150
227.000000 88.011 -172.5831
230.000000 88.067 -172.6433
233.000000 88.131 -172.7423
236.000000 88.213 -172.9281
240.000000 88.371 -173.0453
243.000000 88.377 -173.4834
247.000000 88.337 -174.2823
250.000000 88.344 -174.8358
254.000000 88.356 -175.4216
258.000000 88.356 -176.0435
262.000000 88.349 -176.6159
265.000000 88.338 -177.0244
269.000000 88.319 -177.4562
272.000000 88.304 -177.7236
276.000000 88.294 -178.0364
280.000000 88.298 -178.2945
285.000000 88.301 -178.7528
290.000000 88.305 -179.3647
295.000000 88.293 -179.8990
300.000000 88.274 179.4231
304.000000 88.247 178.8546
307.000000 88.219 178.5326
311.000000 88.197 178.1315
315.000000 88.177 177.7364
320.000000 88.135 177.3285
325.000000 88.098 177.1061
330.000000 88.076 176.9247
335.000000 88.057 176.7502
340.000000 88.041 176.3634
345.000000 88.042 175.8769
350.000000 88.051 175.1845
355.000000 88.033 174.3765
360.000000 87.961 173.9369
365.000000 87.873 173.4636
370.000000 87.798 172.9772
375.000000 87.725 172.4597
382.000000 87.589 171.7281
387.000000 87.477 171.3831
395.000000 87.309 171.0325
400.000000 87.204 171.0096
406.000000 87.064 171.1972
412.000000 86.945 171.4192
418.000000 86.849 171.7712
425.000000 86.744 172.1762
431.000000 86.680 172.5572
437.000000 86.638 172.8646
444.000000 86.576 172.9717
450.000000 86.518 173.0572
455.000000 86.482 173.1785
462.000000 86.438 173.3255
468.000000 86.397 173.4431
475.000000 86.346 173.6031
482.000000 86.302 173.7180
487.000000 86.273 173.7613
494.000000 86.221 173.8347
500.000000 86.171 173.8883
508.000000 86.098 173.9931
515.000000 86.029 174.1632
522.000000 85.953 174.3979
530.000000 85.879 174.7951
538.000000 85.824 175.1951
545.000000 85.779 175.5337
552.000000 85.734 175.9072
560.000000 85.689 176.3777
570.000000 85.654 176.9575
580.000000 85.627 177.4408
590.000000 85.604 177.9203
600.000000 85.592 178.3527
608.000000 85.570 178.6243
615.000000 85.537 178.8420
622.000000 85.499 179.1449
630.000000 85.466 179.6160
640.000000 85.446 -179.8422
650.000000 85.423 -179.2899
660.000000 85.395 -178.7250
670.000000 85.331 -178.2350
680.000000 85.248 -177.0210
690.000000 85.289 -175.1101
700.000000 85.471 -173.7260
710.000000 85.666 -173.1792
720.000000 85.840 -172.8729
730.000000 86.023 -172.7357
740.000000 86.188 -173.0173
750.000000 86.316 -173.5090
762.000000 86.431 -174.1794
775.000000 86.523 -174.9008
788.000000 86.587 -175.9136
800.000000 86.585 -176.8566
812.000000 86.563 -177.6661
825.000000 86.497 -178.6646
838.000000 86.343 -179.2773
850.000000 86.198 -179.1985
862.000000 86.100 -178.9066
875.000000 86.015 -178.4303
885.000000 85.991 -177.8682
900.000000 86.036 -177.4593
912.000000 86.061 -177.5763
925.000000 86.039 -177.9045
938.000000 85.972 -178.0480
950.000000 85.916 -178.0112
962.000000 85.844 -178.0805
975.000000 85.723 -177.8875
988.000000 85.618 -177.1394
1000.000000 85.582 -176.1890
1015.000000 85.633 -175.2024
1030.000000 85.727 -174.8490
1044.000000 85.779 -175.0489
1060.000000 85.735 -175.4289
1075.000000 85.640 -175.3052
1090.000000 85.537 -174.8414
1106.000000 85.456 -173.7574
1120.000000 85.491 -172.5869
1138.000000 85.619 -171.9291
1150.000000 85.662 -171.8981
1172.000000 85.660 -171.5557
1180.000000 85.661 -171.2617
1206.000000 85.766 -170.0740
1220.000000 85.889 -169.9207
1241.000000 85.988 -170.4632
1250.000000 85.997 -170.6832
1265.000000 85.977 -171.0071
1280.000000 85.919 -171.1103
1315.000000 85.817 -170.3389
1320.000000 85.815 -170.1931
1340.000000 85.820 -169.6790
1360.000000 85.826 -169.2307
1380.000000 85.839 -168.7493
1400.000000 85.867 -168.3363
1430.000000 85.904 -167.9001
1450.000000 85.911 -167.6682
1475.000000 85.907 -167.1981
1500.000000 85.922 -166.7165
1525.000000 85.926 -166.3150
1550.000000 85.901 -165.9064
1575.000000 85.856 -165.2454
1600.000000 85.799 -164.3447
1625.000000 85.755 -162.8133
1650.000000 85.833 -160.7912
1675.000000 86.043 -159.2313
1700.000000 86.268 -158.4454
1725.000000 86.460 -157.9346
1750.000000 86.644 -157.5100
1775.000000 86.825 -157.2666
1800.000000 86.990 -157.1556
1825.000000 87.142 -157.0549
1850.000000 87.295 -156.9955
1875.000000 87.442 -157.0553
1900.000000 87.577 -157.1976
1925.000000 87.695 -157.3714
1950.000000 87.800 -157.5312
1975.000000 87.896 -157.6542
2000.000000 87.990 -157.7071
2030.000000 88.114 -157.7146
2060.000000 88.270 -157.7551
2090.000000 88.424 -158.2032
2120.000000 88.518 -158.7630
2140.000000 88.559 -159.0224
2180.000000 88.633 -159.2608
2200.000000 88.671 -159.2937
2240.000000 88.747 -159.0846
2270.000000 88.845 -158.5662
2300.000000 89.025 -158.0368
2330.000000 89.258 -157.9309
2360.000000 89.492 -158.2435
2400.000000 89.785 -159.0852
2430.000000 89.981 -160.0150
2470.000000 90.177 -161.5273
2500.000000 90.277 -162.6261
2540.000000 90.383 -163.9355
2580.000000 90.472 -165.1189
2620.000000 90.559 -166.2101
2650.000000 90.626 -167.0290
2690.000000 90.714 -168.1224
2720.000000 90.783 -168.9734
2760.000000 90.870 -170.2316
2800.000000 90.933 -171.5878
2850.000000 90.983 -173.2289
2900.000000 91.027 -174.8664
2950.000000 91.040 -176.6256
3000.000000 91.011 -178.3289
3040.000000 90.959 -179.5426
3070.000000 90.912 179.7257
3110.000000 90.870 179.0098
3150.000000 90.880 178.3968
3200.000000 90.953 177.3020
3250.000000 91.023 175.7341
3300.000000 91.079 173.9861
3350.000000 91.144 171.8805
3400.000000 91.166 169.2008
3450.000000 91.097 166.2139
3500.000000 90.938 163.2099
3550.000000 90.708 160.2838
3600.000000 90.410 157.4664
3650.000000 90.045 154.8150
3700.000000 89.617 152.4088
3750.000000 89.131 150.2797
3820.000000 88.360 147.8527
3870.000000 87.746 146.5716
3950.000000 86.666 145.4576
4000.000000 85.932 145.4610
4060.000000 85.001 146.3360
4120.000000 84.032 148.2705
4180.000000 83.025 151.5162
4250.000000 81.874 157.8899
4310.000000 81.159 165.9929
4370.000000 80.868 173.5757
4440.000000 80.375 -179.7825
4500.000000 79.709 -169.8506
4550.000000 79.600 -156.0464
4620.000000 81.189 -133.4293
4680.000000 83.938 -120.6868
4750.000000 87.433 -118.6348
4820.000000 90.135 -127.5434
4870.000000 91.252 -137.3980
4940.000000 91.684 -151.0965
5000.000000 91.347 -159.6100
5080.000000 90.610 -165.0410
5150.000000 90.159 -165.4403
5220.000000 90.130 -163.5628
5300.000000 90.734 -161.1248
5380.000000 91.888 -161.4384
5450.000000 92.998 -165.5514
5520.000000 93.862 -172.8872
5600.000000 94.332 176.5411
5700.000000 94.143 162.9604
5800.000000 93.260 150.9235
5900.000000 91.835 141.9128
6000.000000 90.140 136.9115
6080.000000 88.774 135.6019
6150.000000 87.644 136.1253
6220.000000 86.617 138.0147
6300.000000 85.628 141.4723
6400.000000 84.714 146.7867
6500.000000 84.113 152.2153
6600.000000 83.735 157.2026
6700.000000 83.468 161.5916
6800.000000 83.246 165.9583
6900.000000 83.130 170.6885
7000.000000 83.177 175.4400
7100.000000 83.397 179.8266
7200.000000 83.769 -176.6429
7300.000000 84.222 -174.2785
7400.000000 84.693 -173.0401
7500.000000 85.131 -172.8616
7620.000000 85.539 -173.6952
7750.000000 85.815 -175.2416
7880.000000 85.915 -176.8979
8000.000000 85.896 -177.9241
8120.000000 85.862 -178.3930
8250.000000 85.847 -178.5454
8380.000000 85.889 -178.5240
8500.000000 85.949 -178.7402
8620.000000 85.978 -178.8925
8750.000000 86.030 -178.2947
8850.000000 86.208 -177.1858
9000.000000 86.917 -176.0031
9120.000000 87.816 -177.6576
9250.000000 88.794 176.2913
9380.000000 89.310 165.9334
9500.000000 89.009 154.6657
9620.000000 87.898 145.0911
9750.000000 86.093 139.6534
9880.000000 84.197 140.1745
10000.000000 82.761 144.7553
10150.000000 81.633 153.2891
10300.000000 81.227 162.2154
10440.000000 81.326 169.3723
10600.000000 81.806 175.7587
10750.000000 82.552 179.9754
10900.000000 83.582 -178.4363
11060.000000 84.766 178.5317
11200.000000 85.463 171.4009
11380.000000 85.260 158.8287
11500.000000 84.306 151.6588
11720.000000 81.397 148.4424
11800.000000 80.247 152.1104
12060.000000 79.060 -177.2304
12200.000000 80.776 -164.5630
12410.000000 83.914 -163.6444
12500.000000 85.029 -167.5052
12650.000000 86.447 -177.1830
12800.000000 87.290 170.6374
13150.000000 87.152 139.6392
13200.000000 86.924 135.4554
13400.000000 85.650 120.3366
13600.000000 84.078 107.8137
13800.000000 82.400 96.6293
14000.000000 80.495 86.3806
14300.000000 77.242 75.2747
14500.000000 75.309 69.4198
14750.000000 73.415 57.5519
15000.000000 71.563 35.3442
15250.000000 69.291 2.2720
15500.000000 67.703 -31.8189
15750.000000 68.913 -53.8741
16000.000000 71.395 -69.8340
16250.000000 73.000 -84.4288
16500.000000 73.584 -93.7519
16750.000000 74.166 -96.4021
17000.000000 75.291 -98.9457
17250.000000 76.260 -107.2015
17500.000000 76.010 -119.9583
17750.000000 74.023 -128.6740
18000.000000 71.186 -123.1354
18250.000000 69.521 -106.7927
18500.000000 69.459 -92.8224
18750.000000 70.473 -82.4899
19000.000000 72.268 -80.0243
19250.000000 73.771 -87.5622
19500.000000 74.390 -100.5446
19750.000000 74.222 -115.0155
20000.000000 73.781 -126.6428
